File: data/DSC/501023.csv
[Measurement conditions]
Sample identification,501023
Comment,
Anode material,Cu
K-Alpha1 wavelength,1.5406
K-Alpha2 wavelength,1.54443
Ratio K-Alpha2/K-Alpha1,0.500
Divergence slit,Fixed,0.38mm
Monochromator used,NO
Generator voltage, 40
Tube current, 15
File date and time,26/Feb/2025 10:39
Unit cell,
h k l, 0 0 0
Scan axis,Gonio
Scan range,5.002,49.9999
Scan step size,0.0108664
No. of points, 4141
Scan type,CONTINUOUS
Time per step,23.970
[Scan points]
Angle, TimePerStep, Intensity, ESD
5.00743, 23.970, 747.0, 27.3313
5.15956, 23.970, 771.0, 27.7669
5.31169, 23.970, 760.0, 27.5681
5.46382, 23.970, 812.0, 28.4956
5.61595, 23.970, 854.0, 29.2233
5.76808, 23.970, 808.0, 28.4253
5.92021, 23.970, 809.0, 28.4429
6.07234, 23.970, 879.0, 29.6479
6.22447, 23.970, 907.0, 30.1164
6.3766, 23.970, 916.0, 30.2655
6.52873, 23.970, 945.0, 30.7409
6.68086, 23.970, 927.0, 30.4467
6.833, 23.970, 895.0, 29.9166
6.98513, 23.970, 922.0, 30.3645
7.13726, 23.970, 970.0, 31.1448
7.28939, 23.970, 1033.0, 32.1403
7.44152, 23.970, 978.0, 31.2730
7.59365, 23.970, 991.0, 31.4802
7.74578, 23.970, 1044.0, 32.3110
7.89791, 23.970, 1019.0, 31.9218
8.05004, 23.970, 1100.0, 33.1662
8.20217, 23.970, 1098.0, 33.1361
8.3543, 23.970, 1112.0, 33.3467
8.50643, 23.970, 1097.0, 33.1210
8.65856, 23.970, 1206.0, 34.7275
8.81069, 23.970, 1254.0, 35.4119
8.96282, 23.970, 1231.0, 35.0856
9.11495, 23.970, 1332.0, 36.4966
9.26708, 23.970, 1243.0, 35.2562
9.41921, 23.970, 1329.0, 36.4555
9.57134, 23.970, 1364.0, 36.9324
9.72347, 23.970, 1410.0, 37.5500
9.8756, 23.970, 1441.0, 37.9605
10.0277, 23.970, 1470.0, 38.3406
10.1799, 23.970, 1538.0, 39.2173
10.332, 23.970, 1515.0, 38.9230
10.4841, 23.970, 1662.0, 40.7676
10.6362, 23.970, 1656.0, 40.6940
10.7884, 23.970, 1570.0, 39.6232
10.9405, 23.970, 1713.0, 41.3884
11.0926, 23.970, 1704.0, 41.2795
11.2448, 23.970, 1789.0, 42.2966
11.3969, 23.970, 1869.0, 43.2319
11.549, 23.970, 1835.0, 42.8369
11.7012, 23.970, 1932.0, 43.9545
11.8533, 23.970, 1996.0, 44.6766
12.0054, 23.970, 2051.0, 45.2880
12.1576, 23.970, 2071.0, 45.5082
12.3097, 23.970, 2131.0, 46.1628
12.4618, 23.970, 2281.0, 47.7598
12.6139, 23.970, 2345.0, 48.4252
12.7661, 23.970, 2415.0, 49.1426
12.9182, 23.970, 2495.0, 49.9500
13.0703, 23.970, 2642.0, 51.4004
13.2225, 23.970, 2647.0, 51.4490
13.3746, 23.970, 2812.0, 53.0283
13.5267, 23.970, 2836.0, 53.2541
13.6789, 23.970, 2901.0, 53.8609
13.831, 23.970, 3089.0, 55.5788
13.9831, 23.970, 3008.0, 54.8452
14.1352, 23.970, 3280.0, 57.2713
14.2874, 23.970, 3223.0, 56.7715
14.4395, 23.970, 3324.0, 57.6541
14.5916, 23.970, 3569.0, 59.7411
14.7438, 23.970, 3785.0, 61.5224
14.8959, 23.970, 3858.0, 62.1128
15.048, 23.970, 3950.0, 62.8490
15.2002, 23.970, 4017.0, 63.3798
15.3523, 23.970, 4306.0, 65.6201
15.5044, 23.970, 4240.0, 65.1153
15.6565, 23.970, 4313.0, 65.6734
15.8087, 23.970, 4542.0, 67.3944
15.9608, 23.970, 4831.0, 69.5054
16.1129, 23.970, 4833.0, 69.5198
16.2651, 23.970, 5045.0, 71.0282
16.4172, 23.970, 5252.0, 72.4707
16.5693, 23.970, 5321.0, 72.9452
16.7215, 23.970, 5407.0, 73.5323
16.8736, 23.970, 5442.0, 73.7699
17.0257, 23.970, 5668.0, 75.2861
17.1778, 23.970, 5978.0, 77.3175
17.33, 23.970, 6426.0, 80.1623
17.4821, 23.970, 6781.0, 82.3468
17.6342, 23.970, 7585.0, 87.0919
17.7864, 23.970, 8525.0, 92.3309
17.9385, 23.970, 9522.0, 97.5807
18.0906, 23.970, 10572.0, 102.8202
18.2428, 23.970, 10964.0, 104.7091
18.3949, 23.970, 10411.0, 102.0343
18.547, 23.970, 9150.0, 95.6556
18.6991, 23.970, 7965.0, 89.2468
18.8513, 23.970, 7112.0, 84.3327
19.0034, 23.970, 6479.0, 80.4922
19.1555, 23.970, 6291.0, 79.3158
19.3077, 23.970, 6292.0, 79.3221
19.4598, 23.970, 6292.0, 79.3221
19.6119, 23.970, 6269.0, 79.1770
19.7641, 23.970, 6545.0, 80.9012
19.9162, 23.970, 6662.0, 81.6211
20.0683, 23.970, 6839.0, 82.6982
20.2204, 23.970, 6942.0, 83.3187
20.3726, 23.970, 6737.0, 82.0792
20.5247, 23.970, 6335.0, 79.5927
20.6768, 23.970, 5789.0, 76.0855
20.829, 23.970, 5500.0, 74.1620
20.9811, 23.970, 5419.0, 73.6139
21.1332, 23.970, 5211.0, 72.1873
21.2854, 23.970, 5204.0, 72.1388
21.4375, 23.970, 5391.0, 73.4234
21.5896, 23.970, 5795.0, 76.1249
21.7418, 23.970, 6357.0, 79.7308
21.8939, 23.970, 6433.0, 80.2060
22.046, 23.970, 6695.0, 81.8230
22.1981, 23.970, 6522.0, 80.7589
22.3503, 23.970, 6112.0, 78.1793
22.5024, 23.970, 5654.0, 75.1931
22.6545, 23.970, 4957.0, 70.4060
22.8067, 23.970, 4511.0, 67.1640
22.9588, 23.970, 4228.0, 65.0231
23.1109, 23.970, 3757.0, 61.2944
23.2631, 23.970, 3652.0, 60.4318
23.4152, 23.970, 3395.0, 58.2666
23.5673, 23.970, 3220.0, 56.7450
23.7194, 23.970, 2988.0, 54.6626
23.8716, 23.970, 2882.0, 53.6843
24.0237, 23.970, 2773.0, 52.6593
24.1758, 23.970, 2676.0, 51.7301
24.328, 23.970, 2664.0, 51.6140
24.4801, 23.970, 2463.0, 49.6286
24.6322, 23.970, 2517.0, 50.1697
24.7844, 23.970, 2587.0, 50.8626
24.9365, 23.970, 2392.0, 48.9081
25.0886, 23.970, 2426.0, 49.2544
25.2407, 23.970, 2399.0, 48.9796
25.3929, 23.970, 2359.0, 48.5695
25.545, 23.970, 2298.0, 47.9375
25.6971, 23.970, 2143.0, 46.2925
25.8493, 23.970, 2234.0, 47.2652
26.0014, 23.970, 2105.0, 45.8803
26.1535, 23.970, 2073.0, 45.5302
26.3057, 23.970, 2117.0, 46.0109
26.4578, 23.970, 1986.0, 44.5646
26.6099, 23.970, 1986.0, 44.5646
26.762, 23.970, 2010.0, 44.8330
26.9142, 23.970, 1970.0, 44.3847
27.0663, 23.970, 2011.0, 44.8442
27.2184, 23.970, 2013.0, 44.8665
27.3706, 23.970, 2096.0, 45.7821
27.5227, 23.970, 2214.0, 47.0532
27.6748, 23.970, 2293.0, 47.8853
27.827, 23.970, 2492.0, 49.9199
27.9791, 23.970, 2757.0, 52.5071
28.1312, 23.970, 2724.0, 52.1920
28.2833, 23.970, 2780.0, 52.7257
28.4355, 23.970, 2582.0, 50.8134
28.5876, 23.970, 2421.0, 49.2037
28.7397, 23.970, 2412.0, 49.1121
28.8919, 23.970, 2224.0, 47.1593
29.044, 23.970, 2007.0, 44.7996
29.1961, 23.970, 1927.0, 43.8976
29.3483, 23.970, 1831.0, 42.7902
29.5004, 23.970, 1747.0, 41.7971
29.6525, 23.970, 1749.0, 41.8210
29.8046, 23.970, 1603.0, 40.0375
29.9568, 23.970, 1628.0, 40.3485
30.1089, 23.970, 1574.0, 39.6737
30.261, 23.970, 1420.0, 37.6829
30.4132, 23.970, 1403.0, 37.4566
30.5653, 23.970, 1397.0, 37.3765
30.7174, 23.970, 1316.0, 36.2767
30.8696, 23.970, 1315.0, 36.2629
31.0217, 23.970, 1345.0, 36.6742
31.1738, 23.970, 1386.0, 37.2290
31.326, 23.970, 1321.0, 36.3456
31.4781, 23.970, 1225.0, 35.0000
31.6302, 23.970, 1293.0, 35.9583
31.7823, 23.970, 1321.0, 36.3456
31.9345, 23.970, 1270.0, 35.6371
32.0866, 23.970, 1292.0, 35.9444
32.2387, 23.970, 1250.0, 35.3553
32.3909, 23.970, 1291.0, 35.9305
32.543, 23.970, 1271.0, 35.6511
32.6951, 23.970, 1240.0, 35.2136
32.8473, 23.970, 1272.0, 35.6651
32.9994, 23.970, 1214.0, 34.8425
33.1515, 23.970, 1201.0, 34.6554
33.3036, 23.970, 1140.0, 33.7639
33.4558, 23.970, 1123.0, 33.5112
33.6079, 23.970, 1059.0, 32.5423
33.76, 23.970, 1057.0, 32.5115
33.9122, 23.970, 1000.0, 31.6228
34.0643, 23.970, 996.0, 31.5595
34.2164, 23.970, 980.0, 31.3050
34.3686, 23.970, 1005.0, 31.7017
34.5207, 23.970, 915.0, 30.2490
34.6728, 23.970, 931.0, 30.5123
34.8249, 23.970, 945.0, 30.7409
34.9771, 23.970, 936.0, 30.5941
35.1292, 23.970, 970.0, 31.1448
35.2813, 23.970, 929.0, 30.4795
35.4335, 23.970, 869.0, 29.4788
35.5856, 23.970, 864.0, 29.3939
35.7377, 23.970, 867.0, 29.4449
35.8899, 23.970, 855.0, 29.2404
36.042, 23.970, 897.0, 29.9500
36.1941, 23.970, 875.0, 29.5804
36.3462, 23.970, 876.0, 29.5973
36.4984, 23.970, 889.0, 29.8161
36.6505, 23.970, 987.0, 31.4166
36.8026, 23.970, 924.0, 30.3974
36.9548, 23.970, 860.0, 29.3258
37.1069, 23.970, 935.0, 30.5778
37.259, 23.970, 952.0, 30.8545
37.4112, 23.970, 962.0, 31.0161
37.5633, 23.970, 930.0, 30.4959
37.7154, 23.970, 974.0, 31.2090
37.8675, 23.970, 1029.0, 32.0780
38.0197, 23.970, 1022.0, 31.9687
38.1718, 23.970, 1033.0, 32.1403
38.3239, 23.970, 1088.0, 32.9848
38.4761, 23.970, 1110.0, 33.3167
38.6282, 23.970, 1097.0, 33.1210
38.7803, 23.970, 1067.0, 32.6650
38.9325, 23.970, 1059.0, 32.5423
39.0846, 23.970, 987.0, 31.4166
39.2367, 23.970, 920.0, 30.3315
39.3888, 23.970, 998.0, 31.5911
39.541, 23.970, 931.0, 30.5123
39.6931, 23.970, 929.0, 30.4795
39.8452, 23.970, 945.0, 30.7409
39.9974, 23.970, 935.0, 30.5778
40.1495, 23.970, 972.0, 31.1769
40.3016, 23.970, 926.0, 30.4302
40.4538, 23.970, 950.0, 30.8221
40.6059, 23.970, 938.0, 30.6268
40.758, 23.970, 897.0, 29.9500
40.9102, 23.970, 965.0, 31.0644
41.0623, 23.970, 943.0, 30.7083
41.2144, 23.970, 880.0, 29.6648
41.3665, 23.970, 887.0, 29.7825
41.5187, 23.970, 825.0, 28.7228
41.6708, 23.970, 817.0, 28.5832
41.8229, 23.970, 813.0, 28.5132
41.9751, 23.970, 846.0, 29.0861
42.1272, 23.970, 808.0, 28.4253
42.2793, 23.970, 933.0, 30.5450
42.4315, 23.970, 877.0, 29.6142
42.5836, 23.970, 903.0, 30.0500
42.7357, 23.970, 815.0, 28.5482
42.8878, 23.970, 801.0, 28.3019
43.04, 23.970, 807.0, 28.4077
43.1921, 23.970, 779.0, 27.9106
43.3442, 23.970, 747.0, 27.3313
43.4964, 23.970, 795.0, 28.1957
43.6485, 23.970, 790.0, 28.1069
43.8006, 23.970, 800.0, 28.2843
43.9528, 23.970, 773.0, 27.8029
44.1049, 23.970, 802.0, 28.3196
44.257, 23.970, 746.0, 27.3130
44.4091, 23.970, 792.0, 28.1425
44.5613, 23.970, 746.0, 27.3130
44.7134, 23.970, 740.0, 27.2029
44.8655, 23.970, 808.0, 28.4253
45.0177, 23.970, 818.0, 28.6007
45.1698, 23.970, 748.0, 27.3496
45.3219, 23.970, 747.0, 27.3313
45.4741, 23.970, 757.0, 27.5136
45.6262, 23.970, 768.0, 27.7128
45.7783, 23.970, 789.0, 28.0891
45.9304, 23.970, 718.0, 26.7955
46.0826, 23.970, 882.0, 29.6985
46.2347, 23.970, 851.0, 29.1719
46.3868, 23.970, 862.0, 29.3598
46.539, 23.970, 1016.0, 31.8748
46.6911, 23.970, 998.0, 31.5911
46.8432, 23.970, 1082.0, 32.8938
46.9954, 23.970, 1066.0, 32.6497
47.1475, 23.970, 921.0, 30.3480
47.2996, 23.970, 867.0, 29.4449
47.4517, 23.970, 879.0, 29.6479
47.6039, 23.970, 877.0, 29.6142
47.756, 23.970, 883.0, 29.7153
47.9081, 23.970, 924.0, 30.3974
48.0603, 23.970, 850.0, 29.1548
48.2124, 23.970, 766.0, 27.6767
48.3645, 23.970, 770.0, 27.7489
48.5167, 23.970, 739.0, 27.1846
48.6688, 23.970, 728.0, 26.9815
48.8209, 23.970, 737.0, 27.1477
48.973, 23.970, 726.0, 26.9444
49.1252, 23.970, 687.0, 26.2107
49.2773, 23.970, 724.0, 26.9072
49.4294, 23.970, 740.0, 27.2029
49.5816, 23.970, 671.0, 25.9037
49.7337, 23.970, 680.0, 26.0768
49.8858, 23.970, 699.0, 26.4386
49.9945, 23.970, 692.0, 26.3059