File: data/DSC/501024.csv
[Measurement conditions]
Sample identification,501024
Comment,
Anode material,Cu
K-Alpha1 wavelength,1.5406
K-Alpha2 wavelength,1.54443
Ratio K-Alpha2/K-Alpha1,0.500
Divergence slit,Fixed,0.38mm
Monochromator used,NO
Generator voltage, 40
Tube current, 15
File date and time,26/Feb/2025 10:49
Unit cell,
h k l, 0 0 0
Scan axis,Gonio
Scan range,5.002,49.9999
Scan step size,0.0108664
No. of points, 4141
Scan type,CONTINUOUS
Time per step,23.970
[Scan points]
Angle, TimePerStep, Intensity, ESD
5.00743, 23.970, 1218.0, 34.8999
5.15956, 23.970, 1261.0, 35.5106
5.31169, 23.970, 1331.0, 36.4829
5.46382, 23.970, 1404.0, 37.4700
5.61595, 23.970, 1515.0, 38.9230
5.76808, 23.970, 1594.0, 39.9249
5.92021, 23.970, 1565.0, 39.5601
6.07234, 23.970, 1665.0, 40.8044
6.22447, 23.970, 1796.0, 42.3792
6.3766, 23.970, 1859.0, 43.1161
6.52873, 23.970, 1827.0, 42.7434
6.68086, 23.970, 1849.0, 43.0000
6.833, 23.970, 1860.0, 43.1277
6.98513, 23.970, 1879.0, 43.3474
7.13726, 23.970, 1883.0, 43.3935
7.28939, 23.970, 1893.0, 43.5086
7.44152, 23.970, 2056.0, 45.3431
7.59365, 23.970, 1997.0, 44.6878
7.74578, 23.970, 2091.0, 45.7275
7.89791, 23.970, 2061.0, 45.3982
8.05004, 23.970, 2052.0, 45.2990
8.20217, 23.970, 2091.0, 45.7275
8.3543, 23.970, 2099.0, 45.8148
8.50643, 23.970, 2112.0, 45.9565
8.65856, 23.970, 2063.0, 45.4203
8.81069, 23.970, 2115.0, 45.9891
8.96282, 23.970, 2112.0, 45.9565
9.11495, 23.970, 2073.0, 45.5302
9.26708, 23.970, 2122.0, 46.0652
9.41921, 23.970, 2066.0, 45.4533
9.57134, 23.970, 2122.0, 46.0652
9.72347, 23.970, 2112.0, 45.9565
9.8756, 23.970, 2088.0, 45.6946
10.0277, 23.970, 2050.0, 45.2769
10.1799, 23.970, 2094.0, 45.7602
10.332, 23.970, 2153.0, 46.4004
10.4841, 23.970, 2100.0, 45.8258
10.6362, 23.970, 2079.0, 45.5961
10.7884, 23.970, 2027.0, 45.0222
10.9405, 23.970, 2067.0, 45.4643
11.0926, 23.970, 2088.0, 45.6946
11.2448, 23.970, 2051.0, 45.2880
11.3969, 23.970, 2051.0, 45.2880
11.549, 23.970, 2030.0, 45.0555
11.7012, 23.970, 2107.0, 45.9021
11.8533, 23.970, 2041.0, 45.1774
12.0054, 23.970, 2184.0, 46.7333
12.1576, 23.970, 2150.0, 46.3681
12.3097, 23.970, 2147.0, 46.3357
12.4618, 23.970, 2183.0, 46.7226
12.6139, 23.970, 2304.0, 48.0000
12.7661, 23.970, 2257.0, 47.5079
12.9182, 23.970, 2124.0, 46.0869
13.0703, 23.970, 2293.0, 47.8853
13.2225, 23.970, 2292.0, 47.8748
13.3746, 23.970, 2397.0, 48.9592
13.5267, 23.970, 2358.0, 48.5592
13.6789, 23.970, 2463.0, 49.6286
13.831, 23.970, 2485.0, 49.8498
13.9831, 23.970, 2554.0, 50.5371
14.1352, 23.970, 2542.0, 50.4183
14.2874, 23.970, 2733.0, 52.2781
14.4395, 23.970, 2703.0, 51.9904
14.5916, 23.970, 2755.0, 52.4881
14.7438, 23.970, 2748.0, 52.4214
14.8959, 23.970, 2951.0, 54.3231
15.048, 23.970, 3008.0, 54.8452
15.2002, 23.970, 3140.0, 56.0357
15.3523, 23.970, 3303.0, 57.4717
15.5044, 23.970, 3269.0, 57.1752
15.6565, 23.970, 3320.0, 57.6194
15.8087, 23.970, 3425.0, 58.5235
15.9608, 23.970, 3552.0, 59.5987
16.1129, 23.970, 3806.0, 61.6928
16.2651, 23.970, 3807.0, 61.7009
16.4172, 23.970, 4085.0, 63.9140
16.5693, 23.970, 4168.0, 64.5600
16.7215, 23.970, 4252.0, 65.2074
16.8736, 23.970, 4424.0, 66.5132
17.0257, 23.970, 4540.0, 67.3795
17.1778, 23.970, 4579.0, 67.6683
17.33, 23.970, 4869.0, 69.7782
17.4821, 23.970, 4963.0, 70.4486
17.6342, 23.970, 5064.0, 71.1618
17.7864, 23.970, 5263.0, 72.5465
17.9385, 23.970, 5470.0, 73.9594
18.0906, 23.970, 5844.0, 76.4461
18.2428, 23.970, 6301.0, 79.3788
18.3949, 23.970, 6783.0, 82.3590
18.547, 23.970, 7775.0, 88.1760
18.6991, 23.970, 8999.0, 94.8631
18.8513, 23.970, 10681.0, 103.3489
19.0034, 23.970, 11240.0, 106.0189
19.1555, 23.970, 10351.0, 101.7399
19.3077, 23.970, 8912.0, 94.4034
19.4598, 23.970, 7616.0, 87.2697
19.6119, 23.970, 6970.0, 83.4865
19.7641, 23.970, 6561.0, 81.0000
19.9162, 23.970, 6272.0, 79.1960
20.0683, 23.970, 6165.0, 78.5175
20.2204, 23.970, 6077.0, 77.9551
20.3726, 23.970, 6161.0, 78.4920
20.5247, 23.970, 6571.0, 81.0617
20.6768, 23.970, 6685.0, 81.7618
20.829, 23.970, 6959.0, 83.4206
20.9811, 23.970, 7065.0, 84.0536
21.1332, 23.970, 6763.0, 82.2375
21.2854, 23.970, 6272.0, 79.1960
21.4375, 23.970, 6178.0, 78.6003
21.5896, 23.970, 5720.0, 75.6307
21.7418, 23.970, 5548.0, 74.4849
21.8939, 23.970, 5361.0, 73.2189
22.046, 23.970, 5335.0, 73.0411
22.1981, 23.970, 5847.0, 76.4657
22.3503, 23.970, 6250.0, 79.0569
22.5024, 23.970, 6964.0, 83.4506
22.6545, 23.970, 7020.0, 83.7854
22.8067, 23.970, 7311.0, 85.5044
22.9588, 23.970, 7006.0, 83.7019
23.1109, 23.970, 6352.0, 79.6994
23.2631, 23.970, 5956.0, 77.1751
23.4152, 23.970, 5365.0, 73.2462
23.5673, 23.970, 4794.0, 69.2387
23.7194, 23.970, 4532.0, 67.3201
23.8716, 23.970, 4120.0, 64.1872
24.0237, 23.970, 3796.0, 61.6117
24.1758, 23.970, 3548.0, 59.5651
24.328, 23.970, 3472.0, 58.9237
24.4801, 23.970, 3209.0, 56.6480
24.6322, 23.970, 3101.0, 55.6866
24.7844, 23.970, 3006.0, 54.8270
24.9365, 23.970, 2875.0, 53.6190
25.0886, 23.970, 2982.0, 54.6077
25.2407, 23.970, 2866.0, 53.5350
25.3929, 23.970, 2736.0, 52.3068
25.545, 23.970, 2744.0, 52.3832
25.6971, 23.970, 2667.0, 51.6430
25.8493, 23.970, 2740.0, 52.3450
26.0014, 23.970, 2617.0, 51.1566
26.1535, 23.970, 2583.0, 50.8232
26.3057, 23.970, 2632.0, 51.3030
26.4578, 23.970, 2613.0, 51.1175
26.6099, 23.970, 2528.0, 50.2792
26.762, 23.970, 2440.0, 49.3964
26.9142, 23.970, 2418.0, 49.1732
27.0663, 23.970, 2377.0, 48.7545
27.2184, 23.970, 2369.0, 48.6724
27.3706, 23.970, 2331.0, 48.2804
27.5227, 23.970, 2313.0, 48.0937
27.6748, 23.970, 2286.0, 47.8121
27.827, 23.970, 2333.0, 48.3011
27.9791, 23.970, 2396.0, 48.9490
28.1312, 23.970, 2517.0, 50.1697
28.2833, 23.970, 2646.0, 51.4393
28.4355, 23.970, 2865.0, 53.5257
28.5876, 23.970, 3045.0, 55.1815
28.7397, 23.970, 3346.0, 57.8446
28.8919, 23.970, 3399.0, 58.3009
29.044, 23.970, 3296.0, 57.4108
29.1961, 23.970, 3310.0, 57.5326
29.3483, 23.970, 3443.0, 58.6771
29.5004, 23.970, 2857.0, 53.4509
29.6525, 23.970, 2491.0, 49.9099
29.8046, 23.970, 2386.0, 48.8467
29.9568, 23.970, 2189.0, 46.7868
30.1089, 23.970, 2167.0, 46.5510
30.261, 23.970, 2112.0, 45.9565
30.4132, 23.970, 2124.0, 46.0869
30.5653, 23.970, 2016.0, 44.8999
30.7174, 23.970, 1883.0, 43.3935
30.8696, 23.970, 1758.0, 41.9285
31.0217, 23.970, 1755.0, 41.8927
31.1738, 23.970, 1786.0, 42.2611
31.326, 23.970, 1599.0, 39.9875
31.4781, 23.970, 1695.0, 41.1704
31.6302, 23.970, 1666.0, 40.8167
31.7823, 23.970, 1638.0, 40.4722
31.9345, 23.970, 1574.0, 39.6737
32.0866, 23.970, 1575.0, 39.6863
32.2387, 23.970, 1628.0, 40.3485
32.3909, 23.970, 1614.0, 40.1746
32.543, 23.970, 1585.0, 39.8121
32.6951, 23.970, 1655.0, 40.6817
32.8473, 23.970, 1606.0, 40.0749
32.9994, 23.970, 1640.0, 40.4969
33.1515, 23.970, 1581.0, 39.7618
33.3036, 23.970, 1608.0, 40.0999
33.4558, 23.970, 1589.0, 39.8623
33.6079, 23.970, 1496.0, 38.6782
33.76, 23.970, 1533.0, 39.1535
33.9122, 23.970, 1439.0, 37.9342
34.0643, 23.970, 1402.0, 37.4433
34.2164, 23.970, 1441.0, 37.9605
34.3686, 23.970, 1403.0, 37.4566
34.5207, 23.970, 1310.0, 36.1939
34.6728, 23.970, 1367.0, 36.9730
34.8249, 23.970, 1329.0, 36.4555
34.9771, 23.970, 1302.0, 36.0832
35.1292, 23.970, 1203.0, 34.6843
35.2813, 23.970, 1271.0, 35.6511
35.4335, 23.970, 1214.0, 34.8425
35.5856, 23.970, 1243.0, 35.2562
35.7377, 23.970, 1195.0, 34.5688
35.8899, 23.970, 1207.0, 34.7419
36.042, 23.970, 1193.0, 34.5398
36.1941, 23.970, 1159.0, 34.0441
36.3462, 23.970, 1159.0, 34.0441
36.4984, 23.970, 1127.0, 33.5708
36.6505, 23.970, 1150.0, 33.9116
36.8026, 23.970, 1182.0, 34.3802
36.9548, 23.970, 1194.0, 34.5543
37.1069, 23.970, 1155.0, 33.9853
37.259, 23.970, 1173.0, 34.2491
37.4112, 23.970, 1179.0, 34.3366
37.5633, 23.970, 1242.0, 35.2420
37.7154, 23.970, 1234.0, 35.1283
37.8675, 23.970, 1229.0, 35.0571
38.0197, 23.970, 1319.0, 36.3180
38.1718, 23.970, 1302.0, 36.0832
38.3239, 23.970, 1354.0, 36.7967
38.4761, 23.970, 1381.0, 37.1618
38.6282, 23.970, 1461.0, 38.2230
38.7803, 23.970, 1366.0, 36.9594
38.9325, 23.970, 1425.0, 37.7492
39.0846, 23.970, 1420.0, 37.6829
39.2367, 23.970, 1456.0, 38.1576
39.3888, 23.970, 1629.0, 40.3609
39.541, 23.970, 1377.0, 37.1080
39.6931, 23.970, 1346.0, 36.6879
39.8452, 23.970, 1334.0, 36.5240
39.9974, 23.970, 1278.0, 35.7491
40.1495, 23.970, 1281.0, 35.7911
40.3016, 23.970, 1279.0, 35.7631
40.4538, 23.970, 1239.0, 35.1994
40.6059, 23.970, 1205.0, 34.7131
40.758, 23.970, 1274.0, 35.6931
40.9102, 23.970, 1260.0, 35.4965
41.0623, 23.970, 1270.0, 35.6371
41.2144, 23.970, 1278.0, 35.7491
41.3665, 23.970, 1173.0, 34.2491
41.5187, 23.970, 1265.0, 35.5668
41.6708, 23.970, 1172.0, 34.2345
41.8229, 23.970, 1215.0, 34.8569
41.9751, 23.970, 1150.0, 33.9116
42.1272, 23.970, 1167.0, 34.1614
42.2793, 23.970, 1133.0, 33.6601
42.4315, 23.970, 1109.0, 33.3017
42.5836, 23.970, 1159.0, 34.0441
42.7357, 23.970, 1112.0, 33.3467
42.8878, 23.970, 1168.0, 34.1760
43.04, 23.970, 1207.0, 34.7419
43.1921, 23.970, 1187.0, 34.4529
43.3442, 23.970, 1053.0, 32.4500
43.4964, 23.970, 1097.0, 33.1210
43.6485, 23.970, 1076.0, 32.8024
43.8006, 23.970, 1120.0, 33.4664
43.9528, 23.970, 1118.0, 33.4365
44.1049, 23.970, 1103.0, 33.2114
44.257, 23.970, 1119.0, 33.4515
44.4091, 23.970, 1027.0, 32.0468
44.5613, 23.970, 1115.0, 33.3916
44.7134, 23.970, 1061.0, 32.5730
44.8655, 23.970, 1156.0, 34.0000
45.0177, 23.970, 1036.0, 32.1870
45.1698, 23.970, 1036.0, 32.1870
45.3219, 23.970, 1081.0, 32.8786
45.4741, 23.970, 1073.0, 32.7567
45.6262, 23.970, 1053.0, 32.4500
45.7783, 23.970, 1073.0, 32.7567
45.9304, 23.970, 1062.0, 32.5883
46.0826, 23.970, 1019.0, 31.9218
46.2347, 23.970, 1104.0, 33.2265
46.3868, 23.970, 1059.0, 32.5423
46.539, 23.970, 1153.0, 33.9559
46.6911, 23.970, 1084.0, 32.9242
46.8432, 23.970, 1151.0, 33.9264
46.9954, 23.970, 1209.0, 34.7707
47.1475, 23.970, 1260.0, 35.4965
47.2996, 23.970, 1314.0, 36.2491
47.4517, 23.970, 1538.0, 39.2173
47.6039, 23.970, 1364.0, 36.9324
47.756, 23.970, 1256.0, 35.4401
47.9081, 23.970, 1225.0, 35.0000
48.0603, 23.970, 1142.0, 33.7935
48.2124, 23.970, 1209.0, 34.7707
48.3645, 23.970, 1179.0, 34.3366
48.5167, 23.970, 1379.0, 37.1349
48.6688, 23.970, 1109.0, 33.3017
48.8209, 23.970, 991.0, 31.4802
48.973, 23.970, 1041.0, 32.2645
49.1252, 23.970, 987.0, 31.4166
49.2773, 23.970, 983.0, 31.3528
49.4294, 23.970, 973.0, 31.1929
49.5816, 23.970, 1000.0, 31.6228
49.7337, 23.970, 1074.0, 32.7719
49.8858, 23.970, 1041.0, 32.2645
49.9945, 23.970, 959.0, 30.9677