File: data/DSC/HDPE.csv
[Measurement conditions]
Sample identification,HDPE
Comment,
Anode material,Cu
K-Alpha1 wavelength,1.5406
K-Alpha2 wavelength,1.54443
Ratio K-Alpha2/K-Alpha1,0.500
Divergence slit,Fixed,0.38mm
Monochromator used,NO
Generator voltage, 40
Tube current, 15
File date and time,26/Feb/2025 10:57
Unit cell,
h k l, 0 0 0
Scan axis,Gonio
Scan range,5.002,49.9999
Scan step size,0.0108664
No. of points, 4141
Scan type,CONTINUOUS
Time per step,23.970
[Scan points]
Angle, TimePerStep, Intensity, ESD
5.00743, 23.970, 1413.0, 37.5899
5.15956, 23.970, 1539.0, 39.2301
5.31169, 23.970, 1572.0, 39.6485
5.46382, 23.970, 1723.0, 41.5090
5.61595, 23.970, 1757.0, 41.9166
5.76808, 23.970, 1890.0, 43.4741
5.92021, 23.970, 1891.0, 43.4856
6.07234, 23.970, 1996.0, 44.6766
6.22447, 23.970, 2012.0, 44.8553
6.3766, 23.970, 2094.0, 45.7602
6.52873, 23.970, 2186.0, 46.7547
6.68086, 23.970, 2197.0, 46.8722
6.833, 23.970, 2198.0, 46.8828
6.98513, 23.970, 2268.0, 47.6235
7.13726, 23.970, 2397.0, 48.9592
7.28939, 23.970, 2308.0, 48.0416
7.44152, 23.970, 2466.0, 49.6588
7.59365, 23.970, 2499.0, 49.9900
7.74578, 23.970, 2366.0, 48.6415
7.89791, 23.970, 2416.0, 49.1528
8.05004, 23.970, 2460.0, 49.5984
8.20217, 23.970, 2489.0, 49.8899
8.3543, 23.970, 2530.0, 50.2991
8.50643, 23.970, 2544.0, 50.4381
8.65856, 23.970, 2512.0, 50.1199
8.81069, 23.970, 2526.0, 50.2593
8.96282, 23.970, 2572.0, 50.7149
9.11495, 23.970, 2635.0, 51.3323
9.26708, 23.970, 2593.0, 50.9215
9.41921, 23.970, 2465.0, 49.6488
9.57134, 23.970, 2469.0, 49.6890
9.72347, 23.970, 2457.0, 49.5681
9.8756, 23.970, 2451.0, 49.5076
10.0277, 23.970, 2440.0, 49.3964
10.1799, 23.970, 2342.0, 48.3942
10.332, 23.970, 2447.0, 49.4672
10.4841, 23.970, 2429.0, 49.2849
10.6362, 23.970, 2380.0, 48.7852
10.7884, 23.970, 2299.0, 47.9479
10.9405, 23.970, 2270.0, 47.6445
11.0926, 23.970, 2276.0, 47.7074
11.2448, 23.970, 2082.0, 45.6289
11.3969, 23.970, 2183.0, 46.7226
11.549, 23.970, 2127.0, 46.1194
11.7012, 23.970, 2112.0, 45.9565
11.8533, 23.970, 2097.0, 45.7930
12.0054, 23.970, 2094.0, 45.7602
12.1576, 23.970, 2049.0, 45.2659
12.3097, 23.970, 1974.0, 44.4297
12.4618, 23.970, 1986.0, 44.5646
12.6139, 23.970, 2041.0, 45.1774
12.7661, 23.970, 1980.0, 44.4972
12.9182, 23.970, 1937.0, 44.0114
13.0703, 23.970, 1939.0, 44.0341
13.2225, 23.970, 1959.0, 44.2606
13.3746, 23.970, 1878.0, 43.3359
13.5267, 23.970, 1973.0, 44.4185
13.6789, 23.970, 1929.0, 43.9204
13.831, 23.970, 2014.0, 44.8776
13.9831, 23.970, 1906.0, 43.6578
14.1352, 23.970, 1973.0, 44.4185
14.2874, 23.970, 1893.0, 43.5086
14.4395, 23.970, 1994.0, 44.6542
14.5916, 23.970, 2102.0, 45.8476
14.7438, 23.970, 2077.0, 45.5741
14.8959, 23.970, 2163.0, 46.5081
15.048, 23.970, 2193.0, 46.8295
15.2002, 23.970, 2171.0, 46.5940
15.3523, 23.970, 2147.0, 46.3357
15.5044, 23.970, 2204.0, 46.9468
15.6565, 23.970, 2306.0, 48.0208
15.8087, 23.970, 2308.0, 48.0416
15.9608, 23.970, 2299.0, 47.9479
16.1129, 23.970, 2337.0, 48.3425
16.2651, 23.970, 2526.0, 50.2593
16.4172, 23.970, 2482.0, 49.8197
16.5693, 23.970, 2709.0, 52.0481
16.7215, 23.970, 2823.0, 53.1319
16.8736, 23.970, 2836.0, 53.2541
17.0257, 23.970, 3029.0, 55.0364
17.1778, 23.970, 3152.0, 56.1427
17.33, 23.970, 3226.0, 56.7979
17.4821, 23.970, 3388.0, 58.2065
17.6342, 23.970, 3535.0, 59.4559
17.7864, 23.970, 3576.0, 59.7997
17.9385, 23.970, 3898.0, 62.4340
18.0906, 23.970, 4051.0, 63.6475
18.2428, 23.970, 4194.0, 64.7611
18.3949, 23.970, 4495.0, 67.0448
18.547, 23.970, 4518.0, 67.2161
18.6991, 23.970, 4718.0, 68.6877
18.8513, 23.970, 5073.0, 71.2250
19.0034, 23.970, 5192.0, 72.0555
19.1555, 23.970, 5284.0, 72.6911
19.3077, 23.970, 5427.0, 73.6682
19.4598, 23.970, 5795.0, 76.1249
19.6119, 23.970, 5928.0, 76.9935
19.7641, 23.970, 6080.0, 77.9744
19.9162, 23.970, 6009.0, 77.5177
20.0683, 23.970, 6121.0, 78.2368
20.2204, 23.970, 6277.0, 79.2275
20.3726, 23.970, 6530.0, 80.8084
20.5247, 23.970, 6771.0, 82.2861
20.6768, 23.970, 7507.0, 86.6429
20.829, 23.970, 8964.0, 94.6784
20.9811, 23.970, 12366.0, 111.2025
21.1332, 23.970, 19585.0, 139.9464
21.2854, 23.970, 29568.0, 171.9535
21.4375, 23.970, 44768.0, 211.5845
21.5896, 23.970, 65825.0, 256.5638
21.7418, 23.970, 70157.0, 264.8717
21.8939, 23.970, 32739.0, 180.9392
22.046, 23.970, 11380.0, 106.6771
22.1981, 23.970, 6948.0, 83.3547
22.3503, 23.970, 5562.0, 74.5788
22.5024, 23.970, 4878.0, 69.8427
22.6545, 23.970, 4469.0, 66.8506
22.8067, 23.970, 4459.0, 66.7757
22.9588, 23.970, 4332.0, 65.8179
23.1109, 23.970, 4487.0, 66.9851
23.2631, 23.970, 4984.0, 70.5975
23.4152, 23.970, 6052.0, 77.7946
23.5673, 23.970, 7346.0, 85.7088
23.7194, 23.970, 9479.0, 97.3602
23.8716, 23.970, 12192.0, 110.4174
24.0237, 23.970, 13318.0, 115.4036
24.1758, 23.970, 10247.0, 101.2275
24.328, 23.970, 5852.0, 76.4984
24.4801, 23.970, 3742.0, 61.1719
24.6322, 23.970, 2853.0, 53.4135
24.7844, 23.970, 2587.0, 50.8626
24.9365, 23.970, 2349.0, 48.4665
25.0886, 23.970, 2149.0, 46.3573
25.2407, 23.970, 2098.0, 45.8039
25.3929, 23.970, 1967.0, 44.3509
25.545, 23.970, 1964.0, 44.3170
25.6971, 23.970, 1912.0, 43.7264
25.8493, 23.970, 1818.0, 42.6380
26.0014, 23.970, 1746.0, 41.7852
26.1535, 23.970, 1723.0, 41.5090
26.3057, 23.970, 1647.0, 40.5832
26.4578, 23.970, 1669.0, 40.8534
26.6099, 23.970, 1596.0, 39.9500
26.762, 23.970, 1561.0, 39.5095
26.9142, 23.970, 1569.0, 39.6106
27.0663, 23.970, 1591.0, 39.8873
27.2184, 23.970, 1518.0, 38.9615
27.3706, 23.970, 1474.0, 38.3927
27.5227, 23.970, 1365.0, 36.9459
27.6748, 23.970, 1383.0, 37.1887
27.827, 23.970, 1328.0, 36.4417
27.9791, 23.970, 1367.0, 36.9730
28.1312, 23.970, 1346.0, 36.6879
28.2833, 23.970, 1260.0, 35.4965
28.4355, 23.970, 1258.0, 35.4683
28.5876, 23.970, 1284.0, 35.8329
28.7397, 23.970, 1365.0, 36.9459
28.8919, 23.970, 1674.0, 40.9145
29.044, 23.970, 1374.0, 37.0675
29.1961, 23.970, 1314.0, 36.2491
29.3483, 23.970, 1255.0, 35.4260
29.5004, 23.970, 1332.0, 36.4966
29.6525, 23.970, 1420.0, 37.6829
29.8046, 23.970, 1646.0, 40.5709
29.9568, 23.970, 1671.0, 40.8779
30.1089, 23.970, 1761.0, 41.9643
30.261, 23.970, 1750.0, 41.8330
30.4132, 23.970, 1425.0, 37.7492
30.5653, 23.970, 1210.0, 34.7851
30.7174, 23.970, 1164.0, 34.1174
30.8696, 23.970, 1156.0, 34.0000
31.0217, 23.970, 1107.0, 33.2716
31.1738, 23.970, 1039.0, 32.2335
31.326, 23.970, 1056.0, 32.4962
31.4781, 23.970, 1080.0, 32.8634
31.6302, 23.970, 1095.0, 33.0908
31.7823, 23.970, 1092.0, 33.0454
31.9345, 23.970, 1008.0, 31.7490
32.0866, 23.970, 1075.0, 32.7872
32.2387, 23.970, 1013.0, 31.8277
32.3909, 23.970, 1076.0, 32.8024
32.543, 23.970, 1044.0, 32.3110
32.6951, 23.970, 1060.0, 32.5576
32.8473, 23.970, 1070.0, 32.7109
32.9994, 23.970, 1060.0, 32.5576
33.1515, 23.970, 1023.0, 31.9844
33.3036, 23.970, 973.0, 31.1929
33.4558, 23.970, 1073.0, 32.7567
33.6079, 23.970, 1058.0, 32.5269
33.76, 23.970, 1068.0, 32.6803
33.9122, 23.970, 1096.0, 33.1059
34.0643, 23.970, 1084.0, 32.9242
34.2164, 23.970, 1072.0, 32.7414
34.3686, 23.970, 1086.0, 32.9545
34.5207, 23.970, 1095.0, 33.0908
34.6728, 23.970, 1115.0, 33.3916
34.8249, 23.970, 1063.0, 32.6037
34.9771, 23.970, 1040.0, 32.2490
35.1292, 23.970, 1088.0, 32.9848
35.2813, 23.970, 1196.0, 34.5832
35.4335, 23.970, 1295.0, 35.9861
35.5856, 23.970, 1355.0, 36.8103
35.7377, 23.970, 1627.0, 40.3361
35.8899, 23.970, 2179.0, 46.6798
36.042, 23.970, 2869.0, 53.5630
36.1941, 23.970, 3817.0, 61.7819
36.3462, 23.970, 4371.0, 66.1135
36.4984, 23.970, 3782.0, 61.4980
36.6505, 23.970, 2405.0, 49.0408
36.8026, 23.970, 1610.0, 40.1248
36.9548, 23.970, 1359.0, 36.8646
37.1069, 23.970, 1240.0, 35.2136
37.259, 23.970, 1205.0, 34.7131
37.4112, 23.970, 1200.0, 34.6410
37.5633, 23.970, 1202.0, 34.6699
37.7154, 23.970, 1231.0, 35.0856
37.8675, 23.970, 1240.0, 35.2136
38.0197, 23.970, 1393.0, 37.3229
38.1718, 23.970, 1472.0, 38.3667
38.3239, 23.970, 1537.0, 39.2046
38.4761, 23.970, 1573.0, 39.6611
38.6282, 23.970, 1344.0, 36.6606
38.7803, 23.970, 1357.0, 36.8375
38.9325, 23.970, 1527.0, 39.0768
39.0846, 23.970, 1321.0, 36.3456
39.2367, 23.970, 1433.0, 37.8550
39.3888, 23.970, 1720.0, 41.4729
39.541, 23.970, 2153.0, 46.4004
39.6931, 23.970, 2514.0, 50.1398
39.8452, 23.970, 2609.0, 51.0784
39.9974, 23.970, 2443.0, 49.4267
40.1495, 23.970, 2160.0, 46.4758
40.3016, 23.970, 1858.0, 43.1045
40.4538, 23.970, 1965.0, 44.3283
40.6059, 23.970, 2094.0, 45.7602
40.758, 23.970, 2155.0, 46.4220
40.9102, 23.970, 1957.0, 44.2380
41.0623, 23.970, 1769.0, 42.0595
41.2144, 23.970, 1635.0, 40.4351
41.3665, 23.970, 1833.0, 42.8135
41.5187, 23.970, 1970.0, 44.3847
41.6708, 23.970, 2112.0, 45.9565
41.8229, 23.970, 2001.0, 44.7325
41.9751, 23.970, 1836.0, 42.8486
42.1272, 23.970, 1584.0, 39.7995
42.2793, 23.970, 1423.0, 37.7227
42.4315, 23.970, 1557.0, 39.4588
42.5836, 23.970, 1733.0, 41.6293
42.7357, 23.970, 2017.0, 44.9110
42.8878, 23.970, 2154.0, 46.4112
43.04, 23.970, 2152.0, 46.3897
43.1921, 23.970, 2150.0, 46.3681
43.3442, 23.970, 1828.0, 42.7551
43.4964, 23.970, 1688.0, 41.0853
43.6485, 23.970, 1691.0, 41.1218
43.8006, 23.970, 1696.0, 41.1825
43.9528, 23.970, 1770.0, 42.0714
44.1049, 23.970, 1658.0, 40.7185
44.257, 23.970, 1516.0, 38.9358
44.4091, 23.970, 1253.0, 35.3977
44.5613, 23.970, 1150.0, 33.9116
44.7134, 23.970, 1136.0, 33.7046
44.8655, 23.970, 1080.0, 32.8634
45.0177, 23.970, 1116.0, 33.4066
45.1698, 23.970, 983.0, 31.3528
45.3219, 23.970, 1104.0, 33.2265
45.4741, 23.970, 955.0, 30.9031
45.6262, 23.970, 1128.0, 33.5857
45.7783, 23.970, 1058.0, 32.5269
45.9304, 23.970, 1053.0, 32.4500
46.0826, 23.970, 1060.0, 32.5576
46.2347, 23.970, 1039.0, 32.2335
46.3868, 23.970, 1118.0, 33.4365
46.539, 23.970, 1187.0, 34.4529
46.6911, 23.970, 1482.0, 38.4968
46.8432, 23.970, 1570.0, 39.6232
46.9954, 23.970, 1937.0, 44.0114
47.1475, 23.970, 1688.0, 41.0853
47.2996, 23.970, 1315.0, 36.2629
47.4517, 23.970, 1142.0, 33.7935
47.6039, 23.970, 1022.0, 31.9687
47.756, 23.970, 1010.0, 31.7805
47.9081, 23.970, 1109.0, 33.3017
48.0603, 23.970, 1334.0, 36.5240
48.2124, 23.970, 1067.0, 32.6650
48.3645, 23.970, 1044.0, 32.3110
48.5167, 23.970, 1013.0, 31.8277
48.6688, 23.970, 1022.0, 31.9687
48.8209, 23.970, 1055.0, 32.4808
48.973, 23.970, 1106.0, 33.2566
49.1252, 23.970, 1086.0, 32.9545
49.2773, 23.970, 990.0, 31.4643
49.4294, 23.970, 973.0, 31.1929
49.5816, 23.970, 932.0, 30.5287
49.7337, 23.970, 893.0, 29.8831
49.8858, 23.970, 936.0, 30.5941
49.9945, 23.970, 853.0, 29.2062